Seasonal Ice Zone Reconnaissance Survey (SIZRS)                      
Office of Naval Research (ONR) Grant N00014-12-1-0236                
US National Oceanic and Atmospheric Administration Flight 31 May 2018
                                                                     
SIZRS 2018 Mission 1 (AXCTD drop 5)             NOAA Twin Otter N56RF
                     Arctic Ocean = Beaufort Sea                     
71 deg 55.8 min North _ 150 deg 49.8 min West     2018-06-01/0207 UTC
                                                                     
  Airborne Expendable Conductivity-Temperature-Depth (AXCTD) Probe   
            ( http://www.tsk-jp.com/tska/pdf/AXCTD.pdf )             
                 T.S.K. AXCTD serial number 15126162                 
                                                            
     Depth     Pres      Temp      Cond    Salinity   Sigma 
      (m)     (dbar)    (degC)     (S/m)     (psu)    -theta
#
     0.720     0.727    -0.179    2.2158    26.160    20.980
     0.730     0.737    -0.637    2.2099    26.481    21.248
     0.750     0.758    -0.958    2.2025    26.666    21.403
     0.780     0.788    -1.206    2.2232    27.164    21.809
     0.820     0.828    -1.357    2.2217    27.282    21.906
     0.880     0.889    -1.444    2.2276    27.441    22.036
     0.940     0.950    -1.487    2.2703    28.057    22.536
     1.000     1.010    -1.520    2.2806    28.228    22.675
     1.080     1.091    -1.541    2.2983    28.488    22.886
     1.150     1.162    -1.563    2.3159    28.748    23.097
     1.230     1.243    -1.563    2.3263    28.889    23.212
     1.320     1.334    -1.574    2.3366    29.040    23.334
     1.410     1.425    -1.574    2.3498    29.220    23.480
     1.500     1.515    -1.574    2.3572    29.321    23.562
     1.600     1.616    -1.574    2.3631    29.401    23.627
     1.690     1.707    -1.585    2.3704    29.511    23.717
     1.790     1.808    -1.585    2.3734    29.552    23.750
     1.890     1.909    -1.585    2.3763    29.592    23.782
     1.990     2.011    -1.585    2.3793    29.633    23.815
     2.090     2.112    -1.585    2.3808    29.653    23.832
     2.200     2.223    -1.596    2.3822    29.683    23.856
     2.300     2.324    -1.596    2.3837    29.703    23.873
     2.410     2.435    -1.596    2.3852    29.724    23.890
     2.510     2.536    -1.596    2.3866    29.743    23.905
     2.620     2.647    -1.596    2.3866    29.743    23.905
     2.730     2.758    -1.596    2.3896    29.784    23.938
     2.830     2.859    -1.596    2.3896    29.784    23.938
     2.940     2.970    -1.596    2.3911    29.804    23.955
     3.050     3.081    -1.596    2.3911    29.804    23.955
     3.160     3.193    -1.585    2.3925    29.812    23.961
     3.270     3.304    -1.596    2.3925    29.823    23.970
     3.380     3.415    -1.585    2.3925    29.812    23.961
     3.480     3.516    -1.596    2.3925    29.823    23.970
     3.590     3.627    -1.596    2.3940    29.843    23.987
     3.700     3.738    -1.596    2.3940    29.843    23.987
     3.810     3.849    -1.596    2.3940    29.843    23.987
     3.920     3.960    -1.585    2.3940    29.832    23.977
     4.030     4.072    -1.585    2.3955    29.853    23.994
     4.140     4.183    -1.596    2.3955    29.864    24.003
     4.250     4.294    -1.585    2.3955    29.852    23.994
     4.360     4.405    -1.585    2.3970    29.873    24.010
     4.470     4.516    -1.585    2.3970    29.873    24.010
     4.580     4.627    -1.585    2.3970    29.873    24.010
     4.690     4.738    -1.596    2.3955    29.863    24.003
     4.800     4.850    -1.596    2.3955    29.863    24.003
     4.910     4.961    -1.596    2.3970    29.884    24.019
     5.020     5.072    -1.596    2.3970    29.884    24.019
     5.130     5.183    -1.596    2.3970    29.883    24.019
     5.240     5.294    -1.596    2.3970    29.883    24.019
     5.350     5.405    -1.596    2.3970    29.883    24.019
     5.460     5.516    -1.596    2.3970    29.883    24.019
     5.580     5.638    -1.596    2.3970    29.883    24.019
     5.690     5.749    -1.596    2.3970    29.883    24.019
     5.800     5.860    -1.607    2.3970    29.894    24.028
     5.910     5.971    -1.596    2.3970    29.883    24.019
     6.020     6.082    -1.596    2.3970    29.883    24.019
     6.130     6.193    -1.596    2.3984    29.902    24.034
     6.240     6.305    -1.596    2.3984    29.902    24.034
     6.350     6.416    -1.607    2.3984    29.913    24.043
     6.460     6.527    -1.607    2.3984    29.913    24.043
     6.570     6.638    -1.607    2.3970    29.894    24.028
     6.680     6.749    -1.607    2.3984    29.913    24.043
     6.790     6.860    -1.607    2.3984    29.913    24.043
     6.900     6.971    -1.607    2.3984    29.913    24.043
     7.010     7.083    -1.607    2.3984    29.913    24.043
     7.120     7.194    -1.607    2.3984    29.913    24.043
     7.230     7.305    -1.607    2.3984    29.912    24.043
     7.340     7.416    -1.607    2.3984    29.912    24.043
     7.450     7.527    -1.607    2.3984    29.912    24.043
     7.560     7.638    -1.607    2.3984    29.912    24.043
     7.670     7.749    -1.607    2.3984    29.912    24.043
     7.780     7.861    -1.607    2.3984    29.912    24.043
     7.890     7.972    -1.607    2.3984    29.912    24.043
     8.000     8.083    -1.607    2.3984    29.912    24.043
     8.110     8.194    -1.607    2.3999    29.932    24.059
     8.220     8.305    -1.607    2.3999    29.932    24.059
     8.330     8.416    -1.607    2.3999    29.932    24.059
     8.440     8.527    -1.607    2.3999    29.932    24.059
     8.560     8.649    -1.607    2.3999    29.932    24.059
     8.670     8.760    -1.607    2.3999    29.932    24.059
     8.780     8.871    -1.607    2.3999    29.932    24.059
     8.890     8.982    -1.607    2.3999    29.932    24.059
     9.000     9.093    -1.607    2.3999    29.932    24.059
     9.110     9.204    -1.607    2.3999    29.932    24.059
     9.220     9.315    -1.607    2.3999    29.932    24.059
     9.330     9.427    -1.607    2.3999    29.932    24.059
     9.440     9.538    -1.607    2.3999    29.932    24.059
     9.550     9.649    -1.607    2.3999    29.932    24.058
     9.660     9.760    -1.607    2.3999    29.932    24.058
     9.770     9.871    -1.607    2.3999    29.932    24.058
     9.880     9.982    -1.607    2.3999    29.931    24.058
     9.990    10.093    -1.607    2.4014    29.952    24.075
    10.100    10.205    -1.607    2.3999    29.931    24.058
    10.210    10.316    -1.607    2.4014    29.952    24.075
    10.320    10.427    -1.607    2.4014    29.952    24.075
    10.430    10.538    -1.607    2.4014    29.952    24.075
    10.540    10.649    -1.607    2.4014    29.952    24.075
    10.650    10.760    -1.607    2.4014    29.952    24.075
    10.760    10.871    -1.607    2.4014    29.951    24.075
    10.870    10.983    -1.607    2.4014    29.951    24.074
    10.980    11.094    -1.607    2.4014    29.951    24.074
    11.090    11.205    -1.607    2.4014    29.951    24.074
    11.200    11.316    -1.607    2.4014    29.951    24.074
    11.310    11.427    -1.607    2.4014    29.951    24.074
    11.430    11.548    -1.607    2.4014    29.951    24.074
    11.540    11.660    -1.607    2.4014    29.951    24.074
    11.650    11.771    -1.607    2.4014    29.951    24.074
    11.760    11.882    -1.607    2.4014    29.951    24.074
    11.870    11.993    -1.607    2.4014    29.951    24.074
    11.980    12.104    -1.607    2.4014    29.951    24.074
    12.090    12.215    -1.607    2.4014    29.951    24.074
    12.200    12.326    -1.607    2.4014    29.951    24.074
    12.310    12.438    -1.607    2.4014    29.951    24.074
    12.420    12.549    -1.607    2.4014    29.950    24.074
    12.530    12.660    -1.607    2.4014    29.950    24.074
    12.640    12.771    -1.607    2.4028    29.969    24.089
    12.750    12.882    -1.607    2.4014    29.950    24.074
    12.860    12.993    -1.607    2.4028    29.969    24.089
    12.970    13.104    -1.607    2.4014    29.950    24.073
    13.080    13.216    -1.607    2.4028    29.969    24.089
    13.190    13.327    -1.607    2.4028    29.969    24.089
    13.300    13.438    -1.607    2.4028    29.969    24.089
    13.410    13.549    -1.607    2.4028    29.969    24.089
    13.520    13.660    -1.607    2.4028    29.969    24.089
    13.630    13.771    -1.607    2.4028    29.969    24.089
    13.740    13.882    -1.607    2.4028    29.969    24.089
    13.850    13.994    -1.607    2.4028    29.969    24.089
    13.960    14.105    -1.607    2.4028    29.969    24.089
    14.070    14.216    -1.607    2.4028    29.969    24.089
    14.180    14.327    -1.607    2.4028    29.969    24.088
    14.290    14.438    -1.607    2.4028    29.969    24.088
    14.400    14.549    -1.607    2.4028    29.968    24.088
    14.520    14.671    -1.607    2.4028    29.968    24.088
    14.630    14.782    -1.607    2.4028    29.968    24.088
    14.740    14.893    -1.607    2.4028    29.968    24.088
    14.850    15.004    -1.607    2.4028    29.968    24.088
    14.960    15.115    -1.607    2.4028    29.968    24.088
    15.070    15.226    -1.607    2.4028    29.968    24.088
    15.180    15.337    -1.607    2.4028    29.968    24.088
    15.290    15.449    -1.607    2.4028    29.968    24.088
    15.400    15.560    -1.607    2.4028    29.968    24.088
    15.510    15.671    -1.607    2.4028    29.968    24.088
    15.620    15.782    -1.607    2.4028    29.968    24.088
    15.730    15.893    -1.607    2.4028    29.968    24.088
    15.840    16.004    -1.607    2.4043    29.988    24.104
    15.950    16.115    -1.607    2.4043    29.988    24.104
    16.060    16.227    -1.607    2.4043    29.988    24.104
    16.170    16.338    -1.607    2.4043    29.988    24.104
    16.280    16.449    -1.607    2.4043    29.988    24.104
    16.390    16.560    -1.607    2.4043    29.988    24.104
    16.500    16.671    -1.607    2.4028    29.967    24.087
    16.610    16.782    -1.607    2.4043    29.988    24.104
    16.720    16.893    -1.607    2.4043    29.988    24.104
    16.830    17.005    -1.607    2.4043    29.988    24.104
    16.940    17.116    -1.607    2.4043    29.988    24.104
    17.050    17.227    -1.607    2.4043    29.987    24.104
    17.160    17.338    -1.607    2.4043    29.987    24.104
    17.270    17.449    -1.607    2.4043    29.987    24.104
    17.380    17.560    -1.607    2.4043    29.987    24.104
    17.490    17.672    -1.607    2.4043    29.987    24.104
    17.600    17.783    -1.607    2.4043    29.987    24.104
    17.720    17.904    -1.607    2.4043    29.987    24.103
    17.830    18.015    -1.607    2.4043    29.987    24.103
    17.940    18.126    -1.607    2.4043    29.987    24.103
    18.050    18.237    -1.607    2.4043    29.987    24.103
    18.160    18.349    -1.607    2.4043    29.987    24.103
    18.270    18.460    -1.607    2.4043    29.987    24.103
    18.380    18.571    -1.607    2.4043    29.987    24.103
    18.490    18.682    -1.607    2.4043    29.987    24.103
    18.600    18.793    -1.607    2.4043    29.987    24.103
    18.710    18.904    -1.607    2.4043    29.986    24.103
    18.820    19.015    -1.607    2.4043    29.986    24.103
    18.930    19.127    -1.607    2.4043    29.986    24.103
    19.040    19.238    -1.607    2.4043    29.986    24.103
    19.150    19.349    -1.607    2.4043    29.986    24.103
    19.260    19.460    -1.607    2.4043    29.986    24.103
    19.370    19.571    -1.607    2.4043    29.986    24.103
    19.480    19.682    -1.607    2.4043    29.986    24.103
    19.590    19.793    -1.607    2.4043    29.986    24.103
    19.700    19.905    -1.607    2.4043    29.986    24.103
    19.810    20.016    -1.607    2.4058    30.006    24.119
    19.920    20.127    -1.607    2.4058    30.006    24.119
    20.030    20.238    -1.607    2.4043    29.986    24.102
    20.140    20.349    -1.607    2.4043    29.986    24.102
    20.250    20.460    -1.607    2.4058    30.006    24.119
    20.360    20.572    -1.607    2.4043    29.986    24.102
    20.470    20.683    -1.607    2.4058    30.006    24.119
    20.580    20.794    -1.607    2.4058    30.006    24.119
    20.690    20.905    -1.607    2.4043    29.985    24.102
    20.800    21.016    -1.607    2.4058    30.006    24.119
    20.910    21.127    -1.607    2.4058    30.006    24.119
    21.020    21.238    -1.607    2.4058    30.006    24.119
    21.130    21.350    -1.607    2.4058    30.006    24.119
    21.250    21.471    -1.617    2.4058    30.016    24.127
    21.360    21.582    -1.617    2.4043    29.995    24.110
    21.470    21.693    -1.617    2.4058    30.016    24.127
    21.580    21.804    -1.617    2.4043    29.995    24.110
    21.690    21.915    -1.617    2.4058    30.015    24.127
    21.800    22.027    -1.617    2.4058    30.015    24.127
    21.910    22.138    -1.617    2.4058    30.015    24.126
    22.020    22.249    -1.617    2.4043    29.995    24.110
    22.130    22.360    -1.617    2.4043    29.995    24.110
    22.240    22.471    -1.617    2.4043    29.995    24.110
    22.350    22.582    -1.617    2.4043    29.994    24.110
    22.460    22.693    -1.617    2.4058    30.015    24.126
    22.570    22.805    -1.617    2.4043    29.994    24.110
    22.680    22.916    -1.617    2.4058    30.015    24.126
    22.790    23.027    -1.617    2.4058    30.015    24.126
    22.900    23.138    -1.617    2.4043    29.994    24.109
    23.010    23.249    -1.617    2.4043    29.994    24.109
    23.120    23.360    -1.617    2.4043    29.994    24.109
    23.230    23.471    -1.617    2.4058    30.014    24.126
    23.340    23.583    -1.617    2.4043    29.994    24.109
    23.450    23.694    -1.617    2.4043    29.994    24.109
    23.560    23.805    -1.617    2.4058    30.014    24.126
    23.670    23.916    -1.617    2.4043    29.994    24.109
    23.780    24.027    -1.617    2.4058    30.014    24.126
    23.890    24.138    -1.617    2.4058    30.014    24.126
    24.000    24.250    -1.617    2.4043    29.994    24.109
    24.110    24.361    -1.617    2.4058    30.014    24.125
    24.220    24.472    -1.617    2.4058    30.014    24.125
    24.330    24.583    -1.617    2.4058    30.014    24.125
    24.440    24.694    -1.617    2.4043    29.993    24.109
    24.550    24.805    -1.617    2.4058    30.014    24.125
    24.660    24.916    -1.617    2.4058    30.014    24.125
    24.770    25.028    -1.617    2.4058    30.014    24.125
    24.880    25.139    -1.617    2.4058    30.014    24.125
    24.990    25.250    -1.617    2.4058    30.013    24.125
    25.110    25.371    -1.617    2.4058    30.013    24.125
    25.220    25.482    -1.617    2.4058    30.013    24.125
    25.330    25.593    -1.617    2.4058    30.013    24.125
    25.440    25.705    -1.617    2.4058    30.013    24.125
    25.550    25.816    -1.617    2.4058    30.013    24.125
    25.660    25.927    -1.617    2.4058    30.013    24.125
    25.770    26.038    -1.617    2.4058    30.013    24.125
    25.880    26.149    -1.617    2.4058    30.013    24.125
    25.990    26.260    -1.617    2.4058    30.013    24.125
    26.100    26.371    -1.617    2.4058    30.013    24.125
    26.210    26.483    -1.617    2.4058    30.013    24.124
    26.320    26.594    -1.617    2.4058    30.013    24.124
    26.430    26.705    -1.617    2.4058    30.013    24.124
    26.540    26.816    -1.617    2.4058    30.013    24.124
    26.650    26.927    -1.617    2.4058    30.013    24.124
    26.760    27.038    -1.628    2.4058    30.024    24.133
    26.870    27.150    -1.617    2.4058    30.012    24.124
    26.980    27.261    -1.617    2.4058    30.012    24.124
    27.090    27.372    -1.617    2.4058    30.012    24.124
    27.200    27.483    -1.617    2.4058    30.012    24.124
    27.310    27.594    -1.628    2.4058    30.023    24.133
    27.420    27.705    -1.617    2.4058    30.012    24.124
    27.530    27.816    -1.617    2.4058    30.012    24.124
    27.640    27.928    -1.617    2.4058    30.012    24.124
    27.750    28.039    -1.617    2.4058    30.012    24.124
    27.860    28.150    -1.628    2.4058    30.023    24.133
    27.970    28.261    -1.617    2.4058    30.012    24.124
    28.080    28.372    -1.617    2.4058    30.012    24.124
    28.190    28.483    -1.617    2.4073    30.032    24.140
    28.300    28.595    -1.617    2.4058    30.012    24.123
    28.410    28.706    -1.617    2.4058    30.011    24.123
    28.520    28.817    -1.617    2.4058    30.011    24.123
    28.630    28.928    -1.617    2.4058    30.011    24.123
    28.740    29.039    -1.617    2.4073    30.032    24.140
    28.850    29.150    -1.617    2.4058    30.011    24.123
    28.960    29.261    -1.628    2.4058    30.022    24.132
    29.070    29.373    -1.617    2.4073    30.032    24.140
    29.180    29.484    -1.617    2.4058    30.011    24.123
    29.300    29.605    -1.617    2.4058    30.011    24.123
    29.410    29.716    -1.617    2.4073    30.031    24.140
    29.520    29.827    -1.617    2.4058    30.011    24.123
    29.630    29.938    -1.617    2.4058    30.011    24.123
    29.740    30.050    -1.617    2.4073    30.031    24.139
    29.850    30.161    -1.617    2.4073    30.031    24.139
    29.960    30.272    -1.617    2.4073    30.031    24.139
    30.070    30.383    -1.617    2.4073    30.031    24.139
    30.180    30.494    -1.617    2.4073    30.031    24.139
    30.290    30.605    -1.617    2.4073    30.031    24.139
    30.400    30.717    -1.617    2.4073    30.031    24.139
    30.510    30.828    -1.617    2.4073    30.031    24.139
    30.620    30.939    -1.617    2.4073    30.031    24.139
    30.730    31.050    -1.617    2.4073    30.031    24.139
    30.840    31.161    -1.617    2.4073    30.031    24.139
    30.950    31.272    -1.617    2.4073    30.031    24.139
    31.060    31.383    -1.617    2.4073    30.030    24.139
    31.170    31.495    -1.617    2.4073    30.030    24.139
    31.280    31.606    -1.617    2.4087    30.049    24.154
    31.390    31.717    -1.617    2.4087    30.049    24.154
    31.500    31.828    -1.617    2.4087    30.049    24.154
    31.610    31.939    -1.617    2.4087    30.049    24.154
    31.720    32.050    -1.617    2.4087    30.049    24.154
    31.830    32.162    -1.607    2.4087    30.039    24.146
    31.940    32.273    -1.617    2.4087    30.049    24.154
    32.050    32.384    -1.617    2.4102    30.070    24.171
    32.160    32.495    -1.617    2.4087    30.049    24.154
    32.270    32.606    -1.617    2.4087    30.049    24.154
    32.380    32.717    -1.617    2.4087    30.049    24.154
    32.490    32.828    -1.617    2.4102    30.069    24.170
    32.600    32.940    -1.617    2.4102    30.069    24.170
    32.710    33.051    -1.617    2.4102    30.069    24.170
    32.820    33.162    -1.617    2.4102    30.069    24.170
    32.930    33.273    -1.617    2.4102    30.069    24.170
    33.040    33.384    -1.617    2.4102    30.069    24.170
    33.150    33.495    -1.617    2.4102    30.069    24.170
    33.260    33.607    -1.617    2.4102    30.069    24.170
    33.370    33.718    -1.617    2.4102    30.069    24.170
    33.480    33.829    -1.617    2.4102    30.069    24.170
    33.590    33.940    -1.617    2.4102    30.069    24.170
    33.700    34.051    -1.617    2.4102    30.069    24.170
    33.810    34.162    -1.617    2.4102    30.069    24.170
    33.920    34.274    -1.617    2.4102    30.068    24.170
    34.040    34.395    -1.617    2.4102    30.068    24.170
    34.150    34.506    -1.617    2.4102    30.068    24.170
    34.260    34.617    -1.617    2.4102    30.068    24.170
